70BCSV 	
// AQ6370D OPTICAL SPECTRUM ANALYZER //                 
35
"CTRWL",1500.000000
"SPAN", 200.000000
"START WL",1400.000000
"STOP WL",1600.000000
"WLFREQ", 0
"REFL",-70.0
"LSCL", 5.0
"RESLN",2.000
"AVG",   1
"SMPLAUTO",      1
"SMPL",        501
"SMPLINTVL",0.4000
"HIGH3"
"MEAS"
"LSUNT",1
"NMSKH","OFF"
"RESCOR",0
"RESCORMODE",2
"SMOOTH",0
"FIBERTYPE",0
"MEASWL",1
"SWPSPD",1
"MODELNAME","AQ6370D"
"NEBWCAL0",    0
"NEBWCAL1",    0
"NEBWCALWL",   0
"RESPARM",10047
"FREQPARM",10047







"[TRACE DATA]"
1400.0000, -88.573
1400.4000, -87.552
1400.8000, -88.313
1401.2000, -90.035
1401.6000, -90.975
1402.0000, -89.583
1402.4000, -89.783
1402.8000, -90.877
1403.2000, -91.274
1403.6000, -90.827
1404.0000, -89.833
1404.4000, -90.852
1404.8000, -90.362
1405.2000, -89.840
1405.6000, -89.514
1406.0000, -89.601
1406.4000, -89.386
1406.8000, -90.777
1407.2000, -91.778
1407.6000, -90.562
1408.0000, -90.915
1408.4000, -91.181
1408.8000, -92.272
1409.2000, -93.945
1409.6000, -92.176
1410.0000, -93.538
1410.4000, -93.076
1410.8000, -93.049
1411.2000, -92.721
1411.6000, -93.051
1412.0000, -94.133
1412.4000, -91.963
1412.8000, -90.906
1413.2000, -92.136
1413.6000, -92.883
1414.0000, -93.183
1414.4000, -93.075
1414.8000, -92.275
1415.2000, -91.634
1415.6000, -93.038
1416.0000, -93.634
1416.4000, -93.557
1416.8000, -95.324
1417.2000, -93.703
1417.6000, -93.728
1418.0000, -93.109
1418.4000, -91.329
1418.8000, -93.393
1419.2000, -92.227
1419.6000, -92.881
1420.0000, -92.016
1420.4000, -92.242
1420.8000, -92.409
1421.2000, -91.265
1421.6000, -92.318
1422.0000, -91.836
1422.4000, -91.818
1422.8000, -92.234
1423.2000, -92.301
1423.6000, -92.228
1424.0000, -92.252
1424.4000, -91.399
1424.8000, -91.861
1425.2000, -90.394
1425.6000, -89.964
1426.0000, -91.166
1426.4000, -92.216
1426.8000, -92.835
1427.2000, -93.183
1427.6000, -93.178
1428.0000, -93.107
1428.4000, -93.236
1428.8000, -94.282
1429.2000, -92.619
1429.6000, -92.692
1430.0000, -93.264
1430.4000, -91.771
1430.8000, -93.310
1431.2000, -92.016
1431.6000, -90.536
1432.0000, -90.750
1432.4000, -91.038
1432.8000, -90.324
1433.2000, -90.999
1433.6000, -91.634
1434.0000, -91.364
1434.4000, -89.721
1434.8000, -90.070
1435.2000, -90.129
1435.6000, -90.152
1436.0000, -90.618
1436.4000, -91.695
1436.8000, -92.684
1437.2000, -92.775
1437.6000, -90.924
1438.0000, -90.847
1438.4000, -90.418
1438.8000, -89.169
1439.2000, -88.422
1439.6000, -87.844
1440.0000, -88.259
1440.4000, -89.295
1440.8000, -90.451
1441.2000, -90.030
1441.6000, -90.216
1442.0000, -90.513
1442.4000, -90.358
1442.8000, -90.065
1443.2000, -89.614
1443.6000, -89.271
1444.0000, -88.935
1444.4000, -88.080
1444.8000, -88.443
1445.2000, -89.476
1445.6000, -90.629
1446.0000, -91.715
1446.4000, -90.985
1446.8000, -90.070
1447.2000, -89.717
1447.6000, -90.195
1448.0000, -89.961
1448.4000, -89.701
1448.8000, -89.233
1449.2000, -88.853
1449.6000, -88.490
1450.0000, -88.756
1450.4000, -89.457
1450.8000, -88.778
1451.2000, -88.594
1451.6000, -88.127
1452.0000, -88.185
1452.4000, -87.852
1452.8000, -88.523
1453.2000, -88.871
1453.6000, -89.875
1454.0000, -90.444
1454.4000, -89.190
1454.8000, -88.886
1455.2000, -88.716
1455.6000, -88.813
1456.0000, -88.591
1456.4000, -87.357
1456.8000, -87.197
1457.2000, -87.757
1457.6000, -88.851
1458.0000, -89.745
1458.4000, -89.875
1458.8000, -90.426
1459.2000, -90.046
1459.6000, -90.059
1460.0000, -89.931
1460.4000, -89.739
1460.8000, -89.663
1461.2000, -90.202
1461.6000, -90.235
1462.0000, -91.646
1462.4000, -90.333
1462.8000, -89.861
1463.2000, -90.774
1463.6000, -90.849
1464.0000, -90.083
1464.4000, -90.317
1464.8000, -90.439
1465.2000, -89.555
1465.6000, -88.698
1466.0000, -89.284
1466.4000, -89.495
1466.8000, -89.675
1467.2000, -90.331
1467.6000, -91.106
1468.0000, -91.298
1468.4000, -90.605
1468.8000, -90.742
1469.2000, -91.563
1469.6000, -91.987
1470.0000, -91.762
1470.4000, -91.399
1470.8000, -93.592
1471.2000, -91.989
1471.6000, -92.732
1472.0000, -93.310
1472.4000, -93.684
1472.8000, -93.045
1473.2000, -92.757
1473.6000, -92.010
1474.0000, -92.564
1474.4000, -92.911
1474.8000, -92.140
1475.2000, -91.568
1475.6000, -92.720
1476.0000, -93.547
1476.4000, -94.453
1476.8000, -93.625
1477.2000, -94.764
1477.6000, -94.766
1478.0000, -93.996
1478.4000, -94.401
1478.8000, -93.605
1479.2000, -93.187
1479.6000, -94.944
1480.0000, -96.799
1480.4000, -94.506
1480.8000, -94.510
1481.2000, -96.622
1481.6000, -96.153
1482.0000, -94.514
1482.4000, -95.410
1482.8000, -93.784
1483.2000, -93.811
1483.6000, -95.537
1484.0000, -94.743
1484.4000, -96.214
1484.8000, -97.416
1485.2000, -94.902
1485.6000, -93.639
1486.0000, -95.469
1486.4000, -95.219
1486.8000, -96.876
1487.2000, -96.052
1487.6000, -96.660
1488.0000, -95.016
1488.4000, -95.093
1488.8000, -94.713
1489.2000, -94.385
1489.6000, -95.225
1490.0000, -95.578
1490.4000, -95.494
1490.8000, -95.700
1491.2000, -94.883
1491.6000, -96.015
1492.0000, -94.064
1492.4000, -95.802
1492.8000, -94.370
1493.2000, -95.082
1493.6000, -95.512
1494.0000, -95.360
1494.4000, -94.393
1494.8000, -94.024
1495.2000, -95.429
1495.6000, -95.512
1496.0000, -96.338
1496.4000, -94.103
1496.8000, -94.221
1497.2000, -95.578
1497.6000, -95.022
1498.0000, -94.562
1498.4000, -94.260
1498.8000, -94.887
1499.2000, -95.079
1499.6000, -94.336
1500.0000, -95.926
1500.4000, -97.604
1500.8000, -94.691
1501.2000, -93.804
1501.6000, -93.980
1502.0000, -95.799
1502.4000, -95.609
1502.8000, -94.727
1503.2000, -95.173
1503.6000, -96.162
1504.0000, -94.209
1504.4000, -94.389
1504.8000, -93.068
1505.2000, -93.080
1505.6000, -92.973
1506.0000, -95.550
1506.4000, -94.288
1506.8000, -94.598
1507.2000, -94.307
1507.6000, -93.921
1508.0000, -95.248
1508.4000, -94.571
1508.8000, -93.902
1509.2000, -94.019
1509.6000, -93.918
1510.0000, -94.020
1510.4000, -92.440
1510.8000, -94.546
1511.2000, -94.746
1511.6000, -95.781
1512.0000, -94.493
1512.4000, -95.304
1512.8000, -94.882
1513.2000, -94.475
1513.6000, -93.079
1514.0000, -93.095
1514.4000, -92.235
1514.8000, -91.834
1515.2000, -90.376
1515.6000, -90.795
1516.0000, -92.183
1516.4000, -92.055
1516.8000, -93.415
1517.2000, -92.981
1517.6000, -93.900
1518.0000, -93.463
1518.4000, -93.029
1518.8000, -92.388
1519.2000, -91.786
1519.6000, -90.768
1520.0000, -91.890
1520.4000, -91.424
1520.8000, -91.610
1521.2000, -91.548
1521.6000, -92.145
1522.0000, -91.742
1522.4000, -92.513
1522.8000, -91.767
1523.2000, -90.714
1523.6000, -91.939
1524.0000, -91.853
1524.4000, -94.316
1524.8000, -93.167
1525.2000, -92.902
1525.6000, -92.059
1526.0000, -90.988
1526.4000, -90.883
1526.8000, -90.910
1527.2000, -89.338
1527.6000, -91.107
1528.0000, -90.405
1528.4000, -89.801
1528.8000, -89.759
1529.2000, -89.452
1529.6000, -89.070
1530.0000, -89.655
1530.4000, -89.191
1530.8000, -89.636
1531.2000, -88.481
1531.6000, -88.972
1532.0000, -89.326
1532.4000, -90.140
1532.8000, -89.952
1533.2000, -88.515
1533.6000, -87.673
1534.0000, -87.941
1534.4000, -88.739
1534.8000, -89.239
1535.2000, -90.950
1535.6000, -91.244
1536.0000, -92.159
1536.4000, -92.096
1536.8000, -91.928
1537.2000, -91.480
1537.6000, -91.918
1538.0000, -89.871
1538.4000, -89.398
1538.8000, -90.056
1539.2000, -90.648
1539.6000, -91.066
1540.0000, -91.787
1540.4000, -91.712
1540.8000, -91.144
1541.2000, -89.399
1541.6000, -90.621
1542.0000, -90.893
1542.4000, -90.756
1542.8000, -90.180
1543.2000, -88.790
1543.6000, -89.736
1544.0000, -90.344
1544.4000, -89.969
1544.8000, -88.939
1545.2000, -88.526
1545.6000, -89.063
1546.0000, -88.599
1546.4000, -89.604
1546.8000, -89.650
1547.2000, -89.504
1547.6000, -88.724
1548.0000, -88.398
1548.4000, -88.794
1548.8000, -90.172
1549.2000, -91.201
1549.6000, -92.895
1550.0000, -90.671
1550.4000, -89.896
1550.8000, -90.031
1551.2000, -90.532
1551.6000, -89.664
1552.0000, -88.897
1552.4000, -89.748
1552.8000, -89.323
1553.2000, -89.818
1553.6000, -89.819
1554.0000, -89.145
1554.4000, -88.797
1554.8000, -88.430
1555.2000, -88.581
1555.6000, -88.906
1556.0000, -90.990
1556.4000, -91.054
1556.8000, -91.364
1557.2000, -91.496
1557.6000, -92.724
1558.0000, -91.881
1558.4000, -90.378
1558.8000, -91.609
1559.2000, -91.670
1559.6000, -91.606
1560.0000, -92.398
1560.4000, -91.812
1560.8000, -90.849
1561.2000, -91.219
1561.6000, -91.126
1562.0000, -92.202
1562.4000, -91.355
1562.8000, -90.765
1563.2000, -91.904
1563.6000, -89.671
1564.0000, -88.885
1564.4000, -88.792
1564.8000, -89.358
1565.2000, -89.196
1565.6000, -91.787
1566.0000, -93.523
1566.4000, -93.788
1566.8000, -92.021
1567.2000, -89.931
1567.6000, -89.470
1568.0000, -90.371
1568.4000, -90.624
1568.8000, -91.335
1569.2000, -91.334
1569.6000, -91.027
1570.0000, -91.934
1570.4000, -91.590
1570.8000, -92.787
1571.2000, -94.374
1571.6000, -93.009
1572.0000, -93.219
1572.4000, -91.398
1572.8000, -93.565
1573.2000, -92.396
1573.6000, -92.648
1574.0000, -92.655
1574.4000, -92.275
1574.8000, -91.453
1575.2000, -92.212
1575.6000, -92.096
1576.0000, -92.824
1576.4000, -91.927
1576.8000, -91.595
1577.2000, -90.489
1577.6000, -89.543
1578.0000, -90.351
1578.4000, -91.472
1578.8000, -91.251
1579.2000, -90.890
1579.6000, -91.040
1580.0000, -90.040
1580.4000, -89.575
1580.8000, -88.485
1581.2000, -89.120
1581.6000, -88.436
1582.0000, -89.792
1582.4000, -90.307
1582.8000, -90.185
1583.2000, -91.342
1583.6000, -91.709
1584.0000, -93.940
1584.4000, -93.069
1584.8000, -93.443
1585.2000, -91.701
1585.6000, -91.042
1586.0000, -91.355
1586.4000, -91.472
1586.8000, -93.383
1587.2000, -93.167
1587.6000, -91.611
1588.0000, -90.533
1588.4000, -90.277
1588.8000, -89.013
1589.2000, -89.713
1589.6000, -90.086
1590.0000, -90.746
1590.4000, -92.668
1590.8000, -92.159
1591.2000, -92.117
1591.6000, -91.557
1592.0000, -91.935
1592.4000, -92.036
1592.8000, -91.454
1593.2000, -90.737
1593.6000, -89.233
1594.0000, -88.877
1594.4000, -90.070
1594.8000, -90.564
1595.2000, -91.191
1595.6000, -91.908
1596.0000, -90.826
1596.4000, -91.318
1596.8000, -89.542
1597.2000, -88.830
1597.6000, -89.197
1598.0000, -89.619
1598.4000, -89.097
1598.8000, -88.695
1599.2000, -90.821
1599.6000, -90.023
1600.0000, -90.910
