70BCSV 	
// AQ6370D OPTICAL SPECTRUM ANALYZER //                 
35
"CTRWL",1500.000000
"SPAN", 200.000000
"START WL",1400.000000
"STOP WL",1600.000000
"WLFREQ", 0
"REFL",-70.0
"LSCL", 5.0
"RESLN",2.000
"AVG",   1
"SMPLAUTO",      1
"SMPL",        501
"SMPLINTVL",0.4000
"HIGH3"
"MEAS"
"LSUNT",1
"NMSKH","OFF"
"RESCOR",0
"RESCORMODE",2
"SMOOTH",0
"FIBERTYPE",0
"MEASWL",1
"SWPSPD",1
"MODELNAME","AQ6370D"
"NEBWCAL0",    0
"NEBWCAL1",    0
"NEBWCALWL",   0
"RESPARM",10047
"FREQPARM",10047







"[TRACE DATA]"
1400.0000, -81.967
1400.4000, -81.681
1400.8000, -82.418
1401.2000, -82.728
1401.6000, -83.322
1402.0000, -83.722
1402.4000, -84.696
1402.8000, -84.062
1403.2000, -85.332
1403.6000, -86.074
1404.0000, -85.375
1404.4000, -85.511
1404.8000, -84.760
1405.2000, -85.062
1405.6000, -85.340
1406.0000, -83.920
1406.4000, -82.669
1406.8000, -82.733
1407.2000, -83.767
1407.6000, -85.084
1408.0000, -85.721
1408.4000, -84.887
1408.8000, -84.177
1409.2000, -82.437
1409.6000, -81.631
1410.0000, -81.290
1410.4000, -81.443
1410.8000, -81.680
1411.2000, -82.210
1411.6000, -82.881
1412.0000, -83.812
1412.4000, -82.981
1412.8000, -82.828
1413.2000, -82.967
1413.6000, -83.529
1414.0000, -83.810
1414.4000, -83.279
1414.8000, -82.694
1415.2000, -83.089
1415.6000, -83.226
1416.0000, -83.182
1416.4000, -82.683
1416.8000, -82.282
1417.2000, -82.822
1417.6000, -83.993
1418.0000, -83.077
1418.4000, -82.880
1418.8000, -83.560
1419.2000, -84.611
1419.6000, -84.803
1420.0000, -84.323
1420.4000, -84.785
1420.8000, -85.244
1421.2000, -85.853
1421.6000, -86.544
1422.0000, -86.696
1422.4000, -86.089
1422.8000, -86.010
1423.2000, -85.934
1423.6000, -85.291
1424.0000, -84.435
1424.4000, -83.829
1424.8000, -83.220
1425.2000, -82.791
1425.6000, -82.234
1426.0000, -81.683
1426.4000, -81.561
1426.8000, -82.143
1427.2000, -82.976
1427.6000, -83.567
1428.0000, -84.377
1428.4000, -84.166
1428.8000, -83.899
1429.2000, -82.750
1429.6000, -81.389
1430.0000, -80.969
1430.4000, -81.176
1430.8000, -81.908
1431.2000, -83.076
1431.6000, -84.178
1432.0000, -84.380
1432.4000, -83.626
1432.8000, -82.676
1433.2000, -81.752
1433.6000, -81.466
1434.0000, -81.296
1434.4000, -80.619
1434.8000, -80.285
1435.2000, -80.605
1435.6000, -80.995
1436.0000, -81.670
1436.4000, -83.113
1436.8000, -83.922
1437.2000, -83.891
1437.6000, -83.316
1438.0000, -83.263
1438.4000, -83.260
1438.8000, -82.581
1439.2000, -81.069
1439.6000, -80.216
1440.0000, -80.529
1440.4000, -81.655
1440.8000, -82.296
1441.2000, -82.624
1441.6000, -82.860
1442.0000, -83.276
1442.4000, -83.163
1442.8000, -83.609
1443.2000, -84.105
1443.6000, -84.587
1444.0000, -83.114
1444.4000, -82.166
1444.8000, -81.744
1445.2000, -81.693
1445.6000, -81.758
1446.0000, -82.430
1446.4000, -82.951
1446.8000, -82.620
1447.2000, -81.499
1447.6000, -80.328
1448.0000, -79.902
1448.4000, -79.809
1448.8000, -79.638
1449.2000, -80.357
1449.6000, -81.939
1450.0000, -81.805
1450.4000, -81.534
1450.8000, -81.880
1451.2000, -81.846
1451.6000, -81.224
1452.0000, -81.259
1452.4000, -81.315
1452.8000, -81.659
1453.2000, -82.703
1453.6000, -83.672
1454.0000, -83.649
1454.4000, -82.710
1454.8000, -82.205
1455.2000, -82.548
1455.6000, -84.453
1456.0000, -86.024
1456.4000, -86.221
1456.8000, -85.637
1457.2000, -84.183
1457.6000, -82.741
1458.0000, -82.010
1458.4000, -81.500
1458.8000, -82.128
1459.2000, -82.989
1459.6000, -82.691
1460.0000, -82.297
1460.4000, -81.542
1460.8000, -81.907
1461.2000, -83.260
1461.6000, -83.772
1462.0000, -83.327
1462.4000, -82.307
1462.8000, -81.782
1463.2000, -82.154
1463.6000, -82.878
1464.0000, -83.737
1464.4000, -84.029
1464.8000, -84.004
1465.2000, -84.101
1465.6000, -84.552
1466.0000, -85.676
1466.4000, -86.331
1466.8000, -86.215
1467.2000, -86.683
1467.6000, -86.956
1468.0000, -87.122
1468.4000, -86.152
1468.8000, -85.196
1469.2000, -84.559
1469.6000, -84.203
1470.0000, -83.896
1470.4000, -83.511
1470.8000, -84.055
1471.2000, -84.432
1471.6000, -84.557
1472.0000, -85.304
1472.4000, -85.899
1472.8000, -87.402
1473.2000, -87.209
1473.6000, -86.057
1474.0000, -85.474
1474.4000, -85.480
1474.8000, -86.084
1475.2000, -86.864
1475.6000, -87.445
1476.0000, -85.550
1476.4000, -84.763
1476.8000, -84.137
1477.2000, -83.696
1477.6000, -83.287
1478.0000, -83.987
1478.4000, -84.354
1478.8000, -85.316
1479.2000, -86.010
1479.6000, -85.932
1480.0000, -85.634
1480.4000, -86.128
1480.8000, -87.726
1481.2000, -89.692
1481.6000, -90.792
1482.0000, -91.483
1482.4000, -91.594
1482.8000, -90.526
1483.2000, -90.813
1483.6000, -91.033
1484.0000, -91.498
1484.4000, -92.820
1484.8000, -91.913
1485.2000, -90.582
1485.6000, -90.348
1486.0000, -90.430
1486.4000, -91.399
1486.8000, -92.818
1487.2000, -92.726
1487.6000, -96.395
1488.0000, -93.958
1488.4000, -92.548
1488.8000, -93.054
1489.2000, -94.230
1489.6000, -94.328
1490.0000, -96.102
1490.4000, -94.659
1490.8000, -94.765
1491.2000, -93.052
1491.6000, -93.139
1492.0000, -93.430
1492.4000, -94.096
1492.8000, -95.883
1493.2000, -96.208
1493.6000, -94.668
1494.0000, -92.229
1494.4000, -91.961
1494.8000, -90.527
1495.2000, -91.000
1495.6000, -89.630
1496.0000, -88.695
1496.4000, -88.258
1496.8000, -89.071
1497.2000, -89.621
1497.6000, -90.112
1498.0000, -90.713
1498.4000, -92.385
1498.8000, -92.967
1499.2000, -91.709
1499.6000, -92.714
1500.0000, -92.966
1500.4000, -93.652
1500.8000, -96.164
1501.2000, -95.891
1501.6000, -94.801
1502.0000, -92.680
1502.4000, -92.271
1502.8000, -91.398
1503.2000, -89.931
1503.6000, -90.280
1504.0000, -91.113
1504.4000, -91.532
1504.8000, -91.111
1505.2000, -90.794
1505.6000, -90.529
1506.0000, -89.892
1506.4000, -90.649
1506.8000, -90.184
1507.2000, -91.344
1507.6000, -90.386
1508.0000, -89.066
1508.4000, -87.479
1508.8000, -85.770
1509.2000, -84.539
1509.6000, -84.858
1510.0000, -85.484
1510.4000, -85.090
1510.8000, -84.222
1511.2000, -83.550
1511.6000, -83.517
1512.0000, -84.223
1512.4000, -86.099
1512.8000, -86.357
1513.2000, -85.271
1513.6000, -84.359
1514.0000, -83.972
1514.4000, -84.557
1514.8000, -84.264
1515.2000, -85.595
1515.6000, -86.487
1516.0000, -87.621
1516.4000, -86.775
1516.8000, -85.879
1517.2000, -85.730
1517.6000, -86.611
1518.0000, -88.117
1518.4000, -88.079
1518.8000, -87.279
1519.2000, -86.286
1519.6000, -84.630
1520.0000, -84.079
1520.4000, -84.292
1520.8000, -85.376
1521.2000, -85.902
1521.6000, -86.257
1522.0000, -85.806
1522.4000, -85.656
1522.8000, -85.813
1523.2000, -85.289
1523.6000, -85.626
1524.0000, -84.772
1524.4000, -84.696
1524.8000, -85.032
1525.2000, -85.710
1525.6000, -85.712
1526.0000, -84.492
1526.4000, -83.778
1526.8000, -83.486
1527.2000, -84.417
1527.6000, -85.092
1528.0000, -84.896
1528.4000, -85.318
1528.8000, -86.377
1529.2000, -85.594
1529.6000, -84.433
1530.0000, -83.043
1530.4000, -82.037
1530.8000, -81.303
1531.2000, -81.109
1531.6000, -81.341
1532.0000, -81.502
1532.4000, -81.477
1532.8000, -81.670
1533.2000, -82.280
1533.6000, -83.496
1534.0000, -85.082
1534.4000, -84.581
1534.8000, -84.554
1535.2000, -84.943
1535.6000, -84.551
1536.0000, -83.793
1536.4000, -83.674
1536.8000, -82.854
1537.2000, -81.933
1537.6000, -81.578
1538.0000, -81.888
1538.4000, -82.721
1538.8000, -83.382
1539.2000, -83.439
1539.6000, -83.106
1540.0000, -82.803
1540.4000, -82.416
1540.8000, -81.931
1541.2000, -82.461
1541.6000, -82.339
1542.0000, -83.054
1542.4000, -83.174
1542.8000, -82.508
1543.2000, -82.270
1543.6000, -82.588
1544.0000, -83.186
1544.4000, -83.857
1544.8000, -83.481
1545.2000, -82.962
1545.6000, -82.487
1546.0000, -82.432
1546.4000, -82.638
1546.8000, -83.209
1547.2000, -83.462
1547.6000, -83.611
1548.0000, -83.167
1548.4000, -83.082
1548.8000, -84.370
1549.2000, -86.040
1549.6000, -85.893
1550.0000, -86.231
1550.4000, -86.036
1550.8000, -85.975
1551.2000, -86.035
1551.6000, -85.095
1552.0000, -83.988
1552.4000, -82.626
1552.8000, -81.699
1553.2000, -81.752
1553.6000, -82.934
1554.0000, -84.093
1554.4000, -83.767
1554.8000, -83.257
1555.2000, -83.233
1555.6000, -82.883
1556.0000, -81.061
1556.4000, -78.883
1556.8000, -78.942
1557.2000, -79.794
1557.6000, -81.775
1558.0000, -83.999
1558.4000, -84.744
1558.8000, -85.416
1559.2000, -85.734
1559.6000, -86.028
1560.0000, -86.350
1560.4000, -88.248
1560.8000, -89.129
1561.2000, -87.957
1561.6000, -83.835
1562.0000, -82.079
1562.4000, -81.245
1562.8000, -81.649
1563.2000, -82.327
1563.6000, -83.455
1564.0000, -82.528
1564.4000, -81.828
1564.8000, -80.644
1565.2000, -81.115
1565.6000, -81.789
1566.0000, -81.916
1566.4000, -82.076
1566.8000, -82.096
1567.2000, -82.280
1567.6000, -83.446
1568.0000, -82.416
1568.4000, -82.096
1568.8000, -83.861
1569.2000, -84.140
1569.6000, -83.959
1570.0000, -83.628
1570.4000, -83.780
1570.8000, -83.456
1571.2000, -84.142
1571.6000, -84.724
1572.0000, -85.486
1572.4000, -86.217
1572.8000, -86.133
1573.2000, -84.137
1573.6000, -81.373
1574.0000, -82.152
1574.4000, -83.045
1574.8000, -85.387
1575.2000, -85.204
1575.6000, -83.598
1576.0000, -83.087
1576.4000, -83.184
1576.8000, -83.283
1577.2000, -83.110
1577.6000, -82.991
1578.0000, -82.633
1578.4000, -82.689
1578.8000, -82.892
1579.2000, -83.994
1579.6000, -84.827
1580.0000, -85.045
1580.4000, -84.536
1580.8000, -83.458
1581.2000, -81.935
1581.6000, -82.173
1582.0000, -82.460
1582.4000, -83.356
1582.8000, -83.797
1583.2000, -83.423
1583.6000, -82.909
1584.0000, -83.919
1584.4000, -83.925
1584.8000, -83.691
1585.2000, -84.530
1585.6000, -85.329
1586.0000, -84.234
1586.4000, -83.226
1586.8000, -82.938
1587.2000, -82.712
1587.6000, -82.885
1588.0000, -81.914
1588.4000, -82.518
1588.8000, -83.986
1589.2000, -84.882
1589.6000, -83.559
1590.0000, -82.798
1590.4000, -83.246
1590.8000, -83.488
1591.2000, -83.657
1591.6000, -82.533
1592.0000, -82.237
1592.4000, -82.118
1592.8000, -80.402
1593.2000, -79.069
1593.6000, -78.857
1594.0000, -79.861
1594.4000, -82.110
1594.8000, -82.423
1595.2000, -82.218
1595.6000, -82.241
1596.0000, -82.466
1596.4000, -82.527
1596.8000, -81.981
1597.2000, -82.736
1597.6000, -83.084
1598.0000, -83.014
1598.4000, -83.067
1598.8000, -83.283
1599.2000, -82.694
1599.6000, -83.763
1600.0000, -83.690
