70BCSV 	
// AQ6370D OPTICAL SPECTRUM ANALYZER //                 
35
"CTRWL",1500.000000
"SPAN", 200.000000
"START WL",1400.000000
"STOP WL",1600.000000
"WLFREQ", 0
"REFL",-70.0
"LSCL", 5.0
"RESLN",2.000
"AVG",   1
"SMPLAUTO",      1
"SMPL",        501
"SMPLINTVL",0.4000
"HIGH3"
"MEAS"
"LSUNT",1
"NMSKH","OFF"
"RESCOR",0
"RESCORMODE",2
"SMOOTH",0
"FIBERTYPE",0
"MEASWL",1
"SWPSPD",1
"MODELNAME","AQ6370D"
"NEBWCAL0",    0
"NEBWCAL1",    0
"NEBWCALWL",   0
"RESPARM",10047
"FREQPARM",10047







"[TRACE DATA]"
1400.0000, -91.357
1400.4000, -92.139
1400.8000, -91.875
1401.2000, -92.383
1401.6000, -93.138
1402.0000, -93.068
1402.4000, -92.670
1402.8000, -92.358
1403.2000, -93.378
1403.6000, -92.697
1404.0000, -94.182
1404.4000, -93.219
1404.8000, -94.156
1405.2000, -93.815
1405.6000, -94.919
1406.0000, -93.480
1406.4000, -93.502
1406.8000, -92.407
1407.2000, -92.069
1407.6000, -90.991
1408.0000, -90.206
1408.4000, -89.905
1408.8000, -89.509
1409.2000, -89.714
1409.6000, -90.541
1410.0000, -90.005
1410.4000, -89.752
1410.8000, -90.125
1411.2000, -90.211
1411.6000, -90.304
1412.0000, -90.753
1412.4000, -91.464
1412.8000, -90.811
1413.2000, -91.263
1413.6000, -91.485
1414.0000, -90.807
1414.4000, -90.762
1414.8000, -90.116
1415.2000, -90.254
1415.6000, -90.038
1416.0000, -89.918
1416.4000, -89.833
1416.8000, -89.147
1417.2000, -89.127
1417.6000, -88.937
1418.0000, -88.811
1418.4000, -88.400
1418.8000, -88.331
1419.2000, -88.523
1419.6000, -87.970
1420.0000, -88.320
1420.4000, -88.193
1420.8000, -88.356
1421.2000, -88.339
1421.6000, -88.439
1422.0000, -88.841
1422.4000, -89.088
1422.8000, -89.350
1423.2000, -89.540
1423.6000, -89.727
1424.0000, -90.682
1424.4000, -89.720
1424.8000, -90.335
1425.2000, -89.924
1425.6000, -90.185
1426.0000, -90.509
1426.4000, -91.244
1426.8000, -89.372
1427.2000, -89.973
1427.6000, -89.586
1428.0000, -88.769
1428.4000, -88.857
1428.8000, -88.627
1429.2000, -88.111
1429.6000, -87.848
1430.0000, -87.555
1430.4000, -86.842
1430.8000, -87.161
1431.2000, -86.401
1431.6000, -85.839
1432.0000, -85.209
1432.4000, -84.948
1432.8000, -84.524
1433.2000, -84.393
1433.6000, -84.269
1434.0000, -84.263
1434.4000, -84.464
1434.8000, -84.284
1435.2000, -84.586
1435.6000, -84.805
1436.0000, -84.806
1436.4000, -85.056
1436.8000, -85.130
1437.2000, -85.374
1437.6000, -85.396
1438.0000, -85.407
1438.4000, -85.211
1438.8000, -85.131
1439.2000, -84.933
1439.6000, -85.018
1440.0000, -84.901
1440.4000, -84.558
1440.8000, -84.494
1441.2000, -84.662
1441.6000, -84.605
1442.0000, -84.651
1442.4000, -84.970
1442.8000, -85.131
1443.2000, -85.349
1443.6000, -85.270
1444.0000, -85.159
1444.4000, -85.332
1444.8000, -85.619
1445.2000, -85.680
1445.6000, -85.929
1446.0000, -85.928
1446.4000, -85.470
1446.8000, -85.395
1447.2000, -85.405
1447.6000, -85.034
1448.0000, -84.618
1448.4000, -84.328
1448.8000, -84.038
1449.2000, -83.897
1449.6000, -83.803
1450.0000, -83.604
1450.4000, -83.670
1450.8000, -83.627
1451.2000, -83.807
1451.6000, -84.019
1452.0000, -84.184
1452.4000, -84.520
1452.8000, -84.757
1453.2000, -85.211
1453.6000, -85.761
1454.0000, -85.960
1454.4000, -86.224
1454.8000, -86.408
1455.2000, -86.067
1455.6000, -85.657
1456.0000, -85.437
1456.4000, -85.208
1456.8000, -84.479
1457.2000, -84.237
1457.6000, -83.652
1458.0000, -83.465
1458.4000, -83.293
1458.8000, -83.001
1459.2000, -82.792
1459.6000, -82.734
1460.0000, -82.523
1460.4000, -82.601
1460.8000, -82.432
1461.2000, -82.510
1461.6000, -82.768
1462.0000, -83.159
1462.4000, -83.740
1462.8000, -84.398
1463.2000, -84.831
1463.6000, -85.179
1464.0000, -85.723
1464.4000, -86.266
1464.8000, -86.724
1465.2000, -87.371
1465.6000, -87.815
1466.0000, -87.694
1466.4000, -87.747
1466.8000, -88.133
1467.2000, -88.256
1467.6000, -89.107
1468.0000, -88.887
1468.4000, -88.641
1468.8000, -89.659
1469.2000, -89.350
1469.6000, -88.685
1470.0000, -88.587
1470.4000, -88.449
1470.8000, -88.447
1471.2000, -87.991
1471.6000, -87.751
1472.0000, -87.610
1472.4000, -87.072
1472.8000, -86.991
1473.2000, -86.975
1473.6000, -86.409
1474.0000, -86.647
1474.4000, -86.420
1474.8000, -86.416
1475.2000, -86.513
1475.6000, -86.766
1476.0000, -87.235
1476.4000, -87.282
1476.8000, -87.733
1477.2000, -88.256
1477.6000, -88.982
1478.0000, -88.821
1478.4000, -88.835
1478.8000, -88.877
1479.2000, -88.901
1479.6000, -88.570
1480.0000, -88.656
1480.4000, -88.329
1480.8000, -88.165
1481.2000, -88.010
1481.6000, -87.946
1482.0000, -87.768
1482.4000, -88.012
1482.8000, -87.949
1483.2000, -87.516
1483.6000, -87.129
1484.0000, -86.996
1484.4000, -86.489
1484.8000, -85.935
1485.2000, -86.124
1485.6000, -85.664
1486.0000, -85.380
1486.4000, -84.983
1486.8000, -84.787
1487.2000, -84.171
1487.6000, -83.903
1488.0000, -83.657
1488.4000, -83.437
1488.8000, -83.403
1489.2000, -83.581
1489.6000, -83.816
1490.0000, -83.967
1490.4000, -84.525
1490.8000, -84.712
1491.2000, -85.368
1491.6000, -85.476
1492.0000, -85.987
1492.4000, -86.403
1492.8000, -86.649
1493.2000, -86.565
1493.6000, -87.151
1494.0000, -86.967
1494.4000, -86.765
1494.8000, -86.351
1495.2000, -85.916
1495.6000, -85.662
1496.0000, -85.420
1496.4000, -85.625
1496.8000, -85.247
1497.2000, -85.152
1497.6000, -85.416
1498.0000, -85.421
1498.4000, -85.749
1498.8000, -85.593
1499.2000, -85.426
1499.6000, -85.884
1500.0000, -85.998
1500.4000, -86.600
1500.8000, -86.428
1501.2000, -86.819
1501.6000, -86.406
1502.0000, -86.597
1502.4000, -86.694
1502.8000, -86.313
1503.2000, -85.908
1503.6000, -86.179
1504.0000, -85.902
1504.4000, -85.900
1504.8000, -86.076
1505.2000, -86.021
1505.6000, -86.317
1506.0000, -86.396
1506.4000, -86.792
1506.8000, -86.833
1507.2000, -86.658
1507.6000, -87.032
1508.0000, -86.921
1508.4000, -87.260
1508.8000, -87.370
1509.2000, -87.515
1509.6000, -87.530
1510.0000, -87.845
1510.4000, -88.121
1510.8000, -88.110
1511.2000, -87.805
1511.6000, -86.972
1512.0000, -86.284
1512.4000, -86.115
1512.8000, -86.041
1513.2000, -86.172
1513.6000, -85.689
1514.0000, -85.753
1514.4000, -85.273
1514.8000, -85.072
1515.2000, -85.114
1515.6000, -85.344
1516.0000, -85.062
1516.4000, -84.829
1516.8000, -85.034
1517.2000, -84.760
1517.6000, -85.155
1518.0000, -85.128
1518.4000, -85.292
1518.8000, -85.951
1519.2000, -85.558
1519.6000, -85.723
1520.0000, -85.819
1520.4000, -85.579
1520.8000, -84.816
1521.2000, -85.046
1521.6000, -84.644
1522.0000, -84.610
1522.4000, -84.592
1522.8000, -84.363
1523.2000, -84.566
1523.6000, -84.575
1524.0000, -84.669
1524.4000, -84.946
1524.8000, -85.282
1525.2000, -85.677
1525.6000, -86.325
1526.0000, -86.452
1526.4000, -86.603
1526.8000, -86.753
1527.2000, -87.238
1527.6000, -87.476
1528.0000, -87.820
1528.4000, -87.487
1528.8000, -87.599
1529.2000, -87.704
1529.6000, -87.729
1530.0000, -87.514
1530.4000, -87.074
1530.8000, -86.116
1531.2000, -85.605
1531.6000, -84.911
1532.0000, -84.567
1532.4000, -84.389
1532.8000, -84.463
1533.2000, -84.411
1533.6000, -83.923
1534.0000, -83.569
1534.4000, -83.249
1534.8000, -82.974
1535.2000, -82.852
1535.6000, -82.986
1536.0000, -83.105
1536.4000, -83.566
1536.8000, -83.545
1537.2000, -83.874
1537.6000, -83.729
1538.0000, -83.622
1538.4000, -83.600
1538.8000, -83.865
1539.2000, -83.690
1539.6000, -84.090
1540.0000, -84.052
1540.4000, -83.957
1540.8000, -84.455
1541.2000, -84.670
1541.6000, -84.909
1542.0000, -85.096
1542.4000, -85.183
1542.8000, -85.625
1543.2000, -85.740
1543.6000, -85.796
1544.0000, -85.659
1544.4000, -85.744
1544.8000, -85.785
1545.2000, -85.555
1545.6000, -85.672
1546.0000, -85.714
1546.4000, -85.831
1546.8000, -85.910
1547.2000, -85.932
1547.6000, -86.271
1548.0000, -86.488
1548.4000, -86.606
1548.8000, -87.046
1549.2000, -87.139
1549.6000, -87.159
1550.0000, -86.761
1550.4000, -86.469
1550.8000, -86.706
1551.2000, -87.070
1551.6000, -87.437
1552.0000, -87.009
1552.4000, -87.354
1552.8000, -87.345
1553.2000, -86.443
1553.6000, -86.349
1554.0000, -85.562
1554.4000, -84.854
1554.8000, -84.361
1555.2000, -84.025
1555.6000, -83.872
1556.0000, -83.575
1556.4000, -83.580
1556.8000, -83.582
1557.2000, -83.442
1557.6000, -83.271
1558.0000, -83.123
1558.4000, -82.867
1558.8000, -82.650
1559.2000, -82.631
1559.6000, -82.257
1560.0000, -82.152
1560.4000, -81.989
1560.8000, -81.982
1561.2000, -82.367
1561.6000, -82.609
1562.0000, -83.085
1562.4000, -83.125
1562.8000, -83.648
1563.2000, -83.998
1563.6000, -84.369
1564.0000, -84.774
1564.4000, -84.754
1564.8000, -85.627
1565.2000, -85.874
1565.6000, -86.333
1566.0000, -86.483
1566.4000, -87.186
1566.8000, -87.741
1567.2000, -87.867
1567.6000, -88.683
1568.0000, -89.108
1568.4000, -89.374
1568.8000, -89.695
1569.2000, -90.293
1569.6000, -89.854
1570.0000, -89.631
1570.4000, -90.173
1570.8000, -89.688
1571.2000, -89.654
1571.6000, -89.141
1572.0000, -88.931
1572.4000, -88.170
1572.8000, -88.188
1573.2000, -88.354
1573.6000, -88.207
1574.0000, -87.739
1574.4000, -88.102
1574.8000, -88.075
1575.2000, -88.554
1575.6000, -87.784
1576.0000, -88.095
1576.4000, -88.597
1576.8000, -89.107
1577.2000, -89.363
1577.6000, -90.730
1578.0000, -90.755
1578.4000, -89.644
1578.8000, -89.724
1579.2000, -89.930
1579.6000, -90.506
1580.0000, -89.128
1580.4000, -89.272
1580.8000, -88.577
1581.2000, -88.169
1581.6000, -87.300
1582.0000, -87.268
1582.4000, -86.994
1582.8000, -86.862
1583.2000, -87.045
1583.6000, -86.050
1584.0000, -85.787
1584.4000, -85.760
1584.8000, -85.491
1585.2000, -85.958
1585.6000, -85.718
1586.0000, -85.512
1586.4000, -85.138
1586.8000, -84.669
1587.2000, -83.951
1587.6000, -84.087
1588.0000, -84.311
1588.4000, -84.448
1588.8000, -84.340
1589.2000, -84.783
1589.6000, -84.623
1590.0000, -84.941
1590.4000, -84.492
1590.8000, -84.547
1591.2000, -84.567
1591.6000, -84.316
1592.0000, -83.998
1592.4000, -83.606
1592.8000, -83.434
1593.2000, -83.275
1593.6000, -83.441
1594.0000, -83.452
1594.4000, -83.598
1594.8000, -83.600
1595.2000, -84.101
1595.6000, -84.878
1596.0000, -85.116
1596.4000, -86.240
1596.8000, -87.223
1597.2000, -87.571
1597.6000, -88.173
1598.0000, -88.588
1598.4000, -89.736
1598.8000, -90.247
1599.2000, -90.531
1599.6000, -92.529
1600.0000, -93.579
