70BCSV 	
// AQ6370D OPTICAL SPECTRUM ANALYZER //                 
35
"CTRWL",1500.000000
"SPAN", 200.000000
"START WL",1400.000000
"STOP WL",1600.000000
"WLFREQ", 0
"REFL",-70.0
"LSCL", 5.0
"RESLN",2.000
"AVG",   1
"SMPLAUTO",      1
"SMPL",        501
"SMPLINTVL",0.4000
"HIGH3"
"MEAS"
"LSUNT",1
"NMSKH","OFF"
"RESCOR",0
"RESCORMODE",2
"SMOOTH",0
"FIBERTYPE",0
"MEASWL",1
"SWPSPD",1
"MODELNAME","AQ6370D"
"NEBWCAL0",    0
"NEBWCAL1",    0
"NEBWCALWL",   0
"RESPARM",10047
"FREQPARM",10047







"[TRACE DATA]"
1400.0000, -86.316
1400.4000, -87.433
1400.8000, -87.329
1401.2000, -86.173
1401.6000, -85.810
1402.0000, -85.291
1402.4000, -85.278
1402.8000, -85.838
1403.2000, -85.849
1403.6000, -86.140
1404.0000, -86.546
1404.4000, -86.300
1404.8000, -86.928
1405.2000, -86.787
1405.6000, -86.577
1406.0000, -86.943
1406.4000, -86.869
1406.8000, -87.377
1407.2000, -88.068
1407.6000, -88.323
1408.0000, -89.436
1408.4000, -89.286
1408.8000, -87.869
1409.2000, -87.284
1409.6000, -87.444
1410.0000, -86.429
1410.4000, -84.466
1410.8000, -83.907
1411.2000, -84.283
1411.6000, -84.950
1412.0000, -86.031
1412.4000, -87.691
1412.8000, -88.637
1413.2000, -88.088
1413.6000, -87.260
1414.0000, -87.159
1414.4000, -87.398
1414.8000, -87.734
1415.2000, -88.227
1415.6000, -89.122
1416.0000, -89.030
1416.4000, -89.300
1416.8000, -89.000
1417.2000, -88.293
1417.6000, -87.326
1418.0000, -86.515
1418.4000, -85.788
1418.8000, -85.352
1419.2000, -85.154
1419.6000, -85.941
1420.0000, -86.211
1420.4000, -87.637
1420.8000, -89.008
1421.2000, -89.076
1421.6000, -88.431
1422.0000, -88.284
1422.4000, -87.378
1422.8000, -85.871
1423.2000, -85.519
1423.6000, -85.926
1424.0000, -85.844
1424.4000, -86.233
1424.8000, -88.159
1425.2000, -87.919
1425.6000, -87.007
1426.0000, -86.538
1426.4000, -85.544
1426.8000, -85.378
1427.2000, -85.989
1427.6000, -87.121
1428.0000, -86.920
1428.4000, -87.753
1428.8000, -86.731
1429.2000, -86.065
1429.6000, -85.993
1430.0000, -85.541
1430.4000, -84.783
1430.8000, -85.020
1431.2000, -85.149
1431.6000, -84.697
1432.0000, -85.047
1432.4000, -85.416
1432.8000, -85.241
1433.2000, -85.766
1433.6000, -86.915
1434.0000, -87.077
1434.4000, -87.326
1434.8000, -86.476
1435.2000, -86.021
1435.6000, -86.252
1436.0000, -86.670
1436.4000, -87.378
1436.8000, -87.599
1437.2000, -86.766
1437.6000, -84.828
1438.0000, -83.694
1438.4000, -83.406
1438.8000, -83.877
1439.2000, -84.422
1439.6000, -85.580
1440.0000, -86.302
1440.4000, -85.792
1440.8000, -85.763
1441.2000, -85.507
1441.6000, -85.918
1442.0000, -85.653
1442.4000, -85.781
1442.8000, -85.670
1443.2000, -85.813
1443.6000, -86.160
1444.0000, -87.028
1444.4000, -86.599
1444.8000, -86.253
1445.2000, -86.361
1445.6000, -86.101
1446.0000, -84.796
1446.4000, -84.027
1446.8000, -83.091
1447.2000, -82.806
1447.6000, -82.582
1448.0000, -82.638
1448.4000, -83.540
1448.8000, -84.416
1449.2000, -84.230
1449.6000, -84.783
1450.0000, -84.303
1450.4000, -83.251
1450.8000, -83.146
1451.2000, -83.051
1451.6000, -82.095
1452.0000, -82.163
1452.4000, -82.541
1452.8000, -82.212
1453.2000, -83.140
1453.6000, -83.730
1454.0000, -84.122
1454.4000, -84.558
1454.8000, -85.108
1455.2000, -85.814
1455.6000, -85.969
1456.0000, -85.103
1456.4000, -85.190
1456.8000, -85.395
1457.2000, -85.705
1457.6000, -86.560
1458.0000, -86.565
1458.4000, -85.715
1458.8000, -83.775
1459.2000, -82.987
1459.6000, -83.218
1460.0000, -83.107
1460.4000, -84.171
1460.8000, -85.064
1461.2000, -84.252
1461.6000, -83.948
1462.0000, -84.358
1462.4000, -85.016
1462.8000, -85.992
1463.2000, -86.820
1463.6000, -87.064
1464.0000, -87.368
1464.4000, -87.861
1464.8000, -87.870
1465.2000, -87.981
1465.6000, -87.164
1466.0000, -86.709
1466.4000, -86.944
1466.8000, -86.417
1467.2000, -87.197
1467.6000, -86.482
1468.0000, -85.995
1468.4000, -86.657
1468.8000, -87.398
1469.2000, -88.182
1469.6000, -89.766
1470.0000, -88.638
1470.4000, -87.981
1470.8000, -87.196
1471.2000, -86.837
1471.6000, -87.131
1472.0000, -88.295
1472.4000, -88.776
1472.8000, -89.939
1473.2000, -90.264
1473.6000, -90.616
1474.0000, -89.434
1474.4000, -88.873
1474.8000, -88.499
1475.2000, -88.867
1475.6000, -88.215
1476.0000, -88.004
1476.4000, -89.261
1476.8000, -90.495
1477.2000, -92.018
1477.6000, -91.236
1478.0000, -91.233
1478.4000, -91.891
1478.8000, -92.273
1479.2000, -92.230
1479.6000, -95.252
1480.0000, -95.616
1480.4000, -96.245
1480.8000, -94.866
1481.2000, -94.772
1481.6000, -94.928
1482.0000, -94.724
1482.4000, -96.855
1482.8000, -95.270
1483.2000, -94.763
1483.6000, -93.275
1484.0000, -92.330
1484.4000, -92.772
1484.8000, -91.920
1485.2000, -92.836
1485.6000, -92.155
1486.0000, -92.297
1486.4000, -91.324
1486.8000, -90.534
1487.2000, -90.766
1487.6000, -90.088
1488.0000, -91.794
1488.4000, -91.067
1488.8000, -92.025
1489.2000, -92.469
1489.6000, -95.640
1490.0000, -93.397
1490.4000, -94.319
1490.8000, -93.929
1491.2000, -94.903
1491.6000, -96.318
1492.0000, -93.899
1492.4000, -95.154
1492.8000, -95.066
1493.2000, -94.378
1493.6000, -96.181
1494.0000, -94.970
1494.4000, -98.652
1494.8000,-105.278
1495.2000, -95.618
1495.6000,-102.491
1496.0000,-104.058
1496.4000, -99.177
1496.8000, -97.827
1497.2000, -98.561
1497.6000,-103.167
1498.0000, -97.424
1498.4000, -97.975
1498.8000, -95.018
1499.2000, -97.263
1499.6000, -97.590
1500.0000, -95.216
1500.4000, -93.928
1500.8000, -96.041
1501.2000, -98.949
1501.6000, -98.447
1502.0000,-210.000
1502.4000, -99.340
1502.8000, -96.249
1503.2000, -94.238
1503.6000, -93.551
1504.0000, -93.234
1504.4000, -93.685
1504.8000, -91.947
1505.2000, -92.728
1505.6000, -92.115
1506.0000, -92.251
1506.4000, -92.981
1506.8000, -94.031
1507.2000, -93.904
1507.6000, -94.130
1508.0000, -95.165
1508.4000, -95.956
1508.8000, -94.041
1509.2000, -93.754
1509.6000, -91.231
1510.0000, -92.215
1510.4000, -90.676
1510.8000, -90.825
1511.2000, -90.626
1511.6000, -90.822
1512.0000, -90.099
1512.4000, -89.572
1512.8000, -88.817
1513.2000, -89.924
1513.6000, -89.563
1514.0000, -90.439
1514.4000, -90.671
1514.8000, -91.137
1515.2000, -91.533
1515.6000, -92.098
1516.0000, -92.116
1516.4000, -91.739
1516.8000, -90.897
1517.2000, -89.883
1517.6000, -90.206
1518.0000, -88.728
1518.4000, -89.711
1518.8000, -90.565
1519.2000, -91.556
1519.6000, -93.160
1520.0000, -95.705
1520.4000, -92.973
1520.8000, -91.368
1521.2000, -91.803
1521.6000, -90.587
1522.0000, -90.244
1522.4000, -90.288
1522.8000, -90.361
1523.2000, -88.654
1523.6000, -88.118
1524.0000, -88.407
1524.4000, -88.824
1524.8000, -88.787
1525.2000, -88.788
1525.6000, -86.898
1526.0000, -86.329
1526.4000, -86.330
1526.8000, -86.893
1527.2000, -88.103
1527.6000, -88.279
1528.0000, -87.789
1528.4000, -87.145
1528.8000, -87.446
1529.2000, -87.209
1529.6000, -86.666
1530.0000, -86.549
1530.4000, -86.348
1530.8000, -86.924
1531.2000, -87.443
1531.6000, -87.445
1532.0000, -88.000
1532.4000, -86.948
1532.8000, -86.639
1533.2000, -85.879
1533.6000, -84.970
1534.0000, -85.425
1534.4000, -84.583
1534.8000, -85.336
1535.2000, -85.823
1535.6000, -86.347
1536.0000, -87.340
1536.4000, -86.114
1536.8000, -85.986
1537.2000, -87.599
1537.6000, -87.369
1538.0000, -86.638
1538.4000, -86.247
1538.8000, -85.721
1539.2000, -85.687
1539.6000, -85.995
1540.0000, -85.745
1540.4000, -85.109
1540.8000, -85.422
1541.2000, -86.140
1541.6000, -87.276
1542.0000, -87.770
1542.4000, -87.374
1542.8000, -87.312
1543.2000, -87.765
1543.6000, -86.732
1544.0000, -86.277
1544.4000, -86.066
1544.8000, -86.105
1545.2000, -87.213
1545.6000, -88.420
1546.0000, -88.923
1546.4000, -88.954
1546.8000, -88.713
1547.2000, -87.755
1547.6000, -87.384
1548.0000, -86.307
1548.4000, -85.614
1548.8000, -86.177
1549.2000, -86.505
1549.6000, -86.952
1550.0000, -86.803
1550.4000, -86.953
1550.8000, -86.844
1551.2000, -88.053
1551.6000, -88.156
1552.0000, -88.168
1552.4000, -88.252
1552.8000, -87.236
1553.2000, -87.223
1553.6000, -87.295
1554.0000, -87.014
1554.4000, -88.202
1554.8000, -89.508
1555.2000, -90.085
1555.6000, -89.840
1556.0000, -89.335
1556.4000, -88.910
1556.8000, -88.238
1557.2000, -89.632
1557.6000, -88.960
1558.0000, -86.669
1558.4000, -84.620
1558.8000, -84.492
1559.2000, -85.244
1559.6000, -86.560
1560.0000, -86.498
1560.4000, -86.300
1560.8000, -85.689
1561.2000, -85.216
1561.6000, -84.460
1562.0000, -84.687
1562.4000, -85.717
1562.8000, -86.972
1563.2000, -88.611
1563.6000, -88.784
1564.0000, -89.120
1564.4000, -87.104
1564.8000, -86.561
1565.2000, -87.153
1565.6000, -86.722
1566.0000, -86.660
1566.4000, -85.836
1566.8000, -85.960
1567.2000, -86.170
1567.6000, -85.767
1568.0000, -86.131
1568.4000, -84.997
1568.8000, -84.912
1569.2000, -85.596
1569.6000, -86.157
1570.0000, -88.223
1570.4000, -88.273
1570.8000, -87.920
1571.2000, -88.482
1571.6000, -88.088
1572.0000, -87.096
1572.4000, -86.912
1572.8000, -86.557
1573.2000, -86.418
1573.6000, -86.475
1574.0000, -86.173
1574.4000, -86.249
1574.8000, -85.796
1575.2000, -86.095
1575.6000, -86.425
1576.0000, -85.570
1576.4000, -85.351
1576.8000, -85.344
1577.2000, -86.451
1577.6000, -86.770
1578.0000, -85.951
1578.4000, -85.337
1578.8000, -84.619
1579.2000, -85.119
1579.6000, -85.537
1580.0000, -85.077
1580.4000, -84.559
1580.8000, -84.654
1581.2000, -85.568
1581.6000, -87.032
1582.0000, -87.688
1582.4000, -89.155
1582.8000, -88.873
1583.2000, -87.113
1583.6000, -86.456
1584.0000, -84.217
1584.4000, -82.738
1584.8000, -83.792
1585.2000, -85.203
1585.6000, -86.659
1586.0000, -85.555
1586.4000, -84.115
1586.8000, -84.363
1587.2000, -86.333
1587.6000, -86.281
1588.0000, -87.516
1588.4000, -86.776
1588.8000, -87.139
1589.2000, -88.104
1589.6000, -88.646
1590.0000, -89.208
1590.4000, -86.558
1590.8000, -84.444
1591.2000, -84.008
1591.6000, -84.985
1592.0000, -85.167
1592.4000, -85.370
1592.8000, -85.342
1593.2000, -86.270
1593.6000, -84.766
1594.0000, -83.465
1594.4000, -82.904
1594.8000, -84.922
1595.2000, -87.016
1595.6000, -89.277
1596.0000, -89.585
1596.4000, -87.214
1596.8000, -86.121
1597.2000, -86.697
1597.6000, -88.231
1598.0000, -87.409
1598.4000, -84.892
1598.8000, -84.270
1599.2000, -84.631
1599.6000, -84.916
1600.0000, -85.781
